#   q (1/a.u.)   trans p K&B               trans d K&B 
#
      .000000      .000000      .000000      .000000
      .060000      .224897      .060000      .013873
      .105000      .392135      .105000      .042376
      .165000      .611314      .165000      .104054
      .210000      .771576      .210000      .167558
      .255000      .927250      .255000      .245260
      .300000     1.077417      .300000      .336500
      .360000     1.267556      .360000      .477860
      .405000     1.401522      .405000      .597496
      .450000     1.527220      .450000      .727684
      .510000     1.680727      .510000      .915760
      .555000     1.784450      .555000     1.066132
      .600000     1.877757      .600000     1.223074
      .660000     1.985105      .660000     1.440233
      .705000     2.052279      .705000     1.607230
      .765000     2.123436      .765000     1.832683
      .810000     2.162685      .810000     2.001991
      .855000     2.189661      .855000     2.169869
      .915000     2.206428      .915000     2.388987
      .960000     2.204631      .960000     2.547943
     1.005000     2.190635     1.005000     2.700747
     1.065000     2.153334     1.065000     2.892615
     1.110000     2.111736     1.110000     3.025968
     1.155000     2.058855     1.155000     3.148954
     1.215000     1.971544     1.215000     3.294902
     1.260000     1.894107     1.260000     3.389536
     1.305000     1.807054     1.305000     3.470460
     1.365000     1.677112     1.365000     3.555690
     1.410000     1.570137     1.410000     3.601757
     1.455000     1.455812     1.455000     3.631929
     1.515000     1.293280     1.515000     3.646759
     1.560000     1.164851     1.560000     3.638498
     1.605000     1.031749     1.605000     3.613485
     1.665000      .848481     1.665000     3.554120
     1.710000      .707800     1.710000     3.490288
     1.755000      .565314     1.755000     3.410228
     1.815000      .374019     1.815000     3.278975
     1.860000      .230671     1.860000     3.162870
     1.905000      .088357     1.905000     3.032364
     1.965000     -.098379     1.965000     2.837311
     2.010000     -.235157     2.010000     2.676385
     2.055000     -.368296     2.055000     2.504002
     2.115000     -.538942     2.115000     2.258177
     2.160000     -.660919     2.160000     2.063296
     2.205000     -.777074     2.205000     1.860737
     2.250000     -.886854     2.250000     1.651744
     2.310000    -1.022454     2.310000     1.365296
     2.355000    -1.115511     2.355000     1.146311
     2.400000    -1.200747     2.400000      .925238
     2.460000    -1.301704     2.460000      .629505
     2.505000    -1.367594     2.505000      .408676
     2.550000    -1.424869     2.550000      .190107
     2.610000    -1.487657     2.610000     -.095649
     2.655000    -1.524514     2.655000     -.304156
     2.700000    -1.552627     2.700000     -.506410
     2.760000    -1.576663     2.760000     -.764498
     2.805000    -1.584799     2.805000     -.948078
     2.850000    -1.584683     2.850000    -1.122079
     2.910000    -1.572144     2.910000    -1.337756
     2.955000    -1.553853     2.955000    -1.486326
     3.000000    -1.528336     3.000000    -1.622891
     3.060000    -1.483763     3.060000    -1.785409
     3.105000    -1.442980     3.105000    -1.892083
     3.150000    -1.396408     3.150000    -1.985376
     3.210000    -1.326157     3.210000    -2.088620
     3.255000    -1.268015     3.255000    -2.150082
     3.300000    -1.205783     3.300000    -2.197877
     3.360000    -1.117375     3.360000    -2.240563
     3.405000    -1.047700     3.405000    -2.257092
     3.450000     -.975740     3.450000    -2.260703
     3.510000     -.877172     3.510000    -2.246138
     3.555000     -.801967     3.555000    -2.221323
     3.600000     -.726240     3.600000    -2.185235
     3.660000     -.625321     3.660000    -2.120694
     3.705000     -.550286     3.705000    -2.060879
     3.750000     -.476316     3.750000    -1.992123
     3.810000     -.380078     3.810000    -1.887920
     3.855000     -.310199     3.855000    -1.801451
     3.900000     -.242692     3.900000    -1.708805
     3.960000     -.156932     3.960000    -1.577181
     4.005000     -.096171     4.005000    -1.473533
     4.050000     -.038739     4.050000    -1.366638
     4.110000      .032296     4.110000    -1.220562
     4.155000      .081194     4.155000    -1.109448
     4.200000      .126189     4.200000     -.997918
     4.260000      .179949     4.260000     -.849935
     4.305000      .215520     4.305000     -.740467
     4.350000      .246996     4.350000     -.633092
     4.410000      .282618     4.410000     -.494313
     4.455000      .304637     4.455000     -.394303
     4.500000      .322714     4.500000     -.298391
     4.560000      .340869     4.560000     -.177716
     4.605000      .350197     4.605000     -.093156
     4.650000      .356023     4.650000     -.014088
     4.710000      .358649     4.710000      .082302
     4.755000      .357016     4.755000      .147534
     4.800000      .352528     4.800000      .206541
     4.860000      .342487     4.860000      .275380
     4.905000      .332216     4.905000      .319595
     4.950000      .319860     4.950000      .357488
     5.010000      .300561     5.010000      .398335
     5.055000      .284285     5.055000      .421894
     5.100000      .266733     5.100000      .439597
     5.160000      .241756     5.160000      .454498
     5.205000      .222143     5.205000      .459499
     5.250000      .202024     5.250000      .459551
     5.310000      .174778     5.310000      .452502
     5.355000      .154290     5.355000      .442346
     5.400000      .133965     5.400000      .428439
     5.460000      .107417     5.460000      .404739
     5.505000      .088125     5.505000      .383619
     5.550000      .069521     5.550000      .360082
     5.610000      .046001     5.610000      .325637
     5.655000      .029463     5.655000      .298023
     5.700000      .013970     5.700000      .269315
     5.760000     -.004936     5.760000      .229979
     5.805000     -.017731     5.805000      .200145
     5.850000     -.029296     5.850000      .170399
     5.910000     -.042761     5.910000      .131411
     5.955000     -.051385     5.955000      .103044
     6.000000     -.058751     6.000000      .075713
     6.060000     -.066651     6.060000      .041273
     6.105000     -.071176     6.105000      .017200
     6.150000     -.074548     6.150000     -.005183
     6.210000     -.077341     6.210000     -.032168
     6.255000     -.078239     6.255000     -.050129
     6.300000     -.078186     6.300000     -.066057
     6.360000     -.076762     6.360000     -.084059
     6.405000     -.074782     6.405000     -.095116
     6.450000     -.072109     6.450000     -.104091
     6.510000     -.067612     6.510000     -.112886
     6.555000     -.063649     6.555000     -.117181
     6.600000     -.059271     6.600000     -.119596
     6.660000     -.052932     6.660000     -.120061
     6.705000     -.047904     6.705000     -.118494
     6.750000     -.042725     6.750000     -.115429
     6.810000     -.035711     6.810000     -.109253
     6.855000     -.030456     6.855000     -.103245
     6.900000     -.025274     6.900000     -.096228
     6.960000     -.018575     6.960000     -.085572
     7.005000     -.013773     7.005000     -.076808
     7.050000     -.009211     7.050000     -.067556
     7.110000     -.003563     7.110000     -.054721
     7.155000      .000306     7.155000     -.044909
     7.200000      .003836     7.200000     -.035092
     7.260000      .007982     7.260000     -.022217
     7.305000      .010658     7.305000     -.012876
     7.350000      .012956     7.350000     -.003923
     7.410000      .015433     7.410000      .007245
     7.455000      .016858     7.455000      .014938
     7.500000      .017922     7.500000      .021971
     7.560000      .018805     7.560000      .030226
     7.605000      .019090     7.605000      .035522
     7.650000      .019074     7.650000      .040022
     7.710000      .018625     7.710000      .044758
     7.755000      .018003     7.755000      .047359
     7.800000      .017165     7.800000      .049158
     7.860000      .015761     7.860000      .050343
     7.905000      .014532     7.905000      .050364
     7.950000      .013183     7.950000      .049684
     8.010000      .011246     8.010000      .047772
     8.055000      .009726     8.055000      .045654
     8.100000      .008177     8.100000      .043016
     8.160000      .006110     8.160000      .038802
     8.205000      .004587     8.205000      .035205
     8.250000      .003111     8.250000      .031311
     8.310000      .001246     8.310000      .025774
     8.355000     -.000053     8.355000      .021452
     8.400000     -.001253     8.400000      .017058
     8.460000     -.002679     8.460000      .011200
     8.505000     -.003607     8.505000      .006884
     8.550000     -.004409     8.550000      .002696
     8.610000     -.005274     8.610000     -.002599
     8.655000     -.005769     8.655000     -.006296
     8.700000     -.006133     8.700000     -.009713
     8.760000     -.006421     8.760000     -.013779
     8.805000     -.006495     8.805000     -.016426
     8.850000     -.006455     8.850000     -.018706
     8.910000     -.006239     8.910000     -.021153
     8.955000     -.005966     8.955000     -.022535
     9.000000     -.005610     9.000000     -.023527
     9.060000     -.005025     9.060000     -.024253
     9.105000     -.004517     9.105000     -.024365
     9.150000     -.003963     9.150000     -.024124
     9.210000     -.003173     9.210000     -.023289
     9.255000     -.002557     9.255000     -.022310
     9.300000     -.001932     9.300000     -.021058
     9.360000     -.001104     9.360000     -.019019
     9.405000     -.000499     9.405000     -.017255
     9.450000      .000082     9.450000     -.015327
     9.510000      .000806     9.510000     -.012562
     9.555000      .001302     9.555000     -.010388
     9.615000      .001890     9.615000     -.007421
     9.660000      .002270     9.660000     -.005188
     9.705000      .002594     9.705000     -.002984
     9.765000      .002935     9.765000     -.000142
     9.810000      .003122     9.810000      .001882
     9.855000      .003248     9.855000      .003786
     9.915000      .003326     9.915000      .006101
     9.960000      .003318     9.960000      .007646
    10.005000      .003257    10.005000      .009010
    10.065000      .003099    10.065000      .010529
    10.110000      .002928    10.110000      .011433
    10.155000      .002718    10.155000      .012131
    10.215000      .002385    10.215000      .012738
    10.260000      .002102    10.260000      .012955
    10.305000      .001799    10.305000      .012974
    10.365000      .001370    10.365000      .012705
    10.410000      .001039    10.410000      .012297
    10.455000      .000704    10.455000      .011726
    10.515000      .000264    10.515000      .010740
    10.560000     -.000056    10.560000      .009853
    10.605000     -.000362    10.605000      .008859
    10.665000     -.000742    10.665000      .007401
    10.710000     -.001000    10.710000      .006232
    10.755000     -.001232    10.755000      .005021
    10.815000     -.001497    10.815000      .003373
    10.860000     -.001660    10.860000      .002136
    10.905000     -.001790    10.905000      .000920
    10.965000     -.001913    10.965000     -.000643
    11.010000     -.001966    11.010000     -.001751
    11.055000     -.001987    11.055000     -.002788
    11.115000     -.001965    11.115000     -.004040
    11.160000     -.001915    11.160000     -.004867
    11.205000     -.001836    11.205000     -.005589
    11.265000     -.001693    11.265000     -.006378
    11.310000     -.001559    11.310000     -.006834
    11.355000     -.001407    11.355000     -.007172
    11.415000     -.001180    11.415000     -.007436
    11.460000     -.000995    11.460000     -.007498
    11.505000     -.000802    11.505000     -.007446
    11.565000     -.000538    11.565000     -.007210
    11.610000     -.000338    11.610000     -.006916
    11.655000     -.000140    11.655000     -.006532
    11.715000      .000115    11.715000     -.005893
    11.760000      .000296    11.760000     -.005333
    11.805000      .000466    11.805000     -.004715
    11.865000      .000671    11.865000     -.003820
    11.910000      .000807    11.910000     -.003111
    11.955000      .000925    11.955000     -.002383
    12.015000      .001054    12.015000     -.001401
    12.060000      .001128    12.060000     -.000671
    12.105000      .001182    12.105000      .000043
    12.165000      .001223    12.165000      .000950
    12.210000      .001231    12.210000      .001587
    12.255000      .001219    12.255000      .002176
    12.315000      .001176    12.315000      .002878
    12.360000      .001123    12.360000      .003333
    12.405000      .001056    12.405000      .003721
    12.465000      .000944    12.465000      .004132
    12.510000      .000847    12.510000      .004355
    12.555000      .000741    12.555000      .004506
    12.615000      .000587    12.615000      .004595
    12.660000      .000466    12.660000      .004579
    12.705000      .000342    12.705000      .004495
    12.765000      .000175    12.765000      .004284
    12.810000      .000052    12.810000      .004058
    12.855000     -.000068    12.855000      .003778
    12.915000     -.000220    12.915000      .003335
    12.960000     -.000325    12.960000      .002956
    13.005000     -.000422    13.005000      .002547
    13.065000     -.000535    13.065000      .001965
    13.110000     -.000608    13.110000      .001511
    13.155000     -.000669    13.155000      .001049
    13.215000     -.000731    13.215000      .000435
    13.260000     -.000762    13.260000     -.000016
    13.305000     -.000781    13.305000     -.000452
    13.365000     -.000787    13.365000     -.000999
    13.410000     -.000777    13.410000     -.001376
    13.455000     -.000755    13.455000     -.001720
    13.515000     -.000710    13.515000     -.002121
    13.560000     -.000664    13.560000     -.002374
    13.605000     -.000610    13.605000     -.002582
    13.665000     -.000526    13.665000     -.002790
    13.710000     -.000456    13.710000     -.002891
    13.755000     -.000382    13.755000     -.002945
    13.815000     -.000277    13.815000     -.002946
    13.860000     -.000196    13.860000     -.002896
    13.905000     -.000115    13.905000     -.002803
    13.965000     -.000008    13.965000     -.002619
    14.010000      .000069    14.010000     -.002440
    14.055000      .000143    14.055000     -.002231
    14.115000      .000234    14.115000     -.001910
    14.160000      .000296    14.160000     -.001644
    14.205000      .000351    14.205000     -.001362
    14.265000      .000414    14.265000     -.000969
    14.310000      .000452    14.310000     -.000667
    14.355000      .000482    14.355000     -.000364
    14.415000      .000509    14.415000      .000032
    14.460000      .000519    14.460000      .000319
    14.505000      .000521    14.505000      .000592
    14.565000      .000511    14.565000      .000929
    14.610000      .000495    14.610000      .001157
    14.655000      .000472    14.655000      .001360
    14.715000      .000431    14.715000      .001590
    14.760000      .000393    14.760000      .001728
    14.805000      .000351    14.805000      .001836
    14.865000      .000288    14.865000      .001932
    14.910000      .000238    14.910000      .001968
    14.955000      .000185    14.955000      .001973
    15.015000      .000113    15.015000      .001933
    15.060000      .000058    15.060000      .001870
    15.105000      .000004    15.105000      .001781
    15.165000     -.000065    15.165000      .001625
    15.210000     -.000114    15.210000      .001483
    15.255000     -.000160    15.255000      .001323
    15.315000     -.000215    15.315000      .001086
    15.360000     -.000251    15.360000      .000895
    15.405000     -.000282    15.405000      .000695
    15.465000     -.000316    15.465000      .000423
    15.510000     -.000334    15.510000      .000218
    15.555000     -.000347    15.555000      .000015
    15.615000     -.000356    15.615000     -.000246
    15.660000     -.000356    15.660000     -.000431
    15.705000     -.000350    15.705000     -.000605
    15.765000     -.000334    15.765000     -.000814
    15.810000     -.000317    15.810000     -.000952
    15.855000     -.000295    15.855000     -.001072
    15.915000     -.000260    15.915000     -.001200
    15.960000     -.000230    15.960000     -.001273
    16.005000     -.000198    16.005000     -.001324
    16.065000     -.000151    16.065000     -.001358
    16.110000     -.000114    16.110000     -.001360
    16.155000     -.000076    16.155000     -.001340
    16.215000     -.000026    16.215000     -.001284
    16.260000      .000011    16.260000     -.001221
    16.305000      .000047    16.305000     -.001140
    16.365000      .000092    16.365000     -.001010
    16.410000      .000123    16.410000     -.000897
    16.455000      .000151    16.455000     -.000774
    16.515000      .000184    16.515000     -.000597
    16.560000      .000205    16.560000     -.000458
    16.605000      .000222    16.605000     -.000315
    16.665000      .000238    16.665000     -.000124
    16.710000      .000246    16.710000      .000018
    16.755000      .000250    16.755000      .000155
    16.815000      .000249    16.815000      .000329
    16.860000      .000244    16.860000      .000449
    16.905000      .000235    16.905000      .000560
    16.965000      .000218    16.965000      .000689
    17.010000      .000202    17.010000      .000771
    17.055000      .000183    17.055000      .000840
    17.115000      .000154    17.115000      .000908
    17.160000      .000131    17.160000      .000942
    17.205000      .000105    17.205000      .000960
    17.265000      .000071    17.265000      .000962
    17.310000      .000044    17.310000      .000946
    17.355000      .000017    17.355000      .000916
    17.415000     -.000018    17.415000      .000856
    17.460000     -.000043    17.460000      .000797
    17.505000     -.000067    17.505000      .000727
    17.565000     -.000096    17.565000      .000620
    17.610000     -.000115    17.610000      .000531
    17.655000     -.000133    17.655000      .000436
    17.715000     -.000152    17.715000      .000303
    17.760000     -.000163    17.760000      .000201
    17.805000     -.000171    17.805000      .000098
    17.865000     -.000178    17.865000     -.000037
    17.910000     -.000180    17.910000     -.000135
    17.955000     -.000179    17.955000     -.000228
    18.015000     -.000174    18.015000     -.000343
    18.060000     -.000166    18.060000     -.000421
    18.105000     -.000157    18.105000     -.000491
    18.165000     -.000141    18.165000     -.000569
    18.210000     -.000127    18.210000     -.000617
    18.255000     -.000111    18.255000     -.000653
    18.315000     -.000088    18.315000     -.000685
    18.360000     -.000069    18.360000     -.000696
    18.405000     -.000050    18.405000     -.000697
    18.465000     -.000024    18.465000     -.000681
    18.510000     -.000005    18.510000     -.000657
    18.555000      .000014    18.555000     -.000624
    18.615000      .000038    18.615000     -.000566
    18.660000      .000055    18.660000     -.000514
    18.705000      .000071    18.705000     -.000455
    18.765000      .000089    18.765000     -.000369
    18.810000      .000101    18.810000     -.000299
    18.855000      .000111    18.855000     -.000226
    18.915000      .000122    18.915000     -.000127
    18.960000      .000127    18.960000     -.000052
    19.005000      .000131    19.005000      .000022
    19.065000      .000132    19.065000      .000117
    19.110000      .000131    19.110000      .000185
    19.155000      .000127    19.155000      .000248
    19.215000      .000120    19.215000      .000324
    19.260000      .000112    19.260000      .000373
    19.305000      .000103    19.305000      .000416
    19.365000      .000089    19.365000      .000461
    19.410000      .000077    19.410000      .000486
    19.455000      .000064    19.455000      .000503
    19.515000      .000046    19.515000      .000514
    19.560000      .000032    19.560000      .000512
    19.605000      .000017    19.605000      .000502
    19.665000     -.000002    19.665000      .000478
    19.710000     -.000015    19.710000      .000452
    19.755000     -.000029    19.755000      .000420
    19.815000     -.000045    19.815000      .000368
    19.860000     -.000056    19.860000      .000323
    19.905000     -.000066    19.905000      .000275
    19.965000     -.000078    19.965000      .000205
    20.010000     -.000085    20.010000      .000151
    20.055000     -.000090    20.055000      .000096
    20.115000     -.000096    20.115000      .000022
    20.160000     -.000098    20.160000     -.000033
    20.205000     -.000098    20.205000     -.000086
    20.265000     -.000096    20.265000     -.000152
    20.310000     -.000093    20.310000     -.000198
    20.355000     -.000089    20.355000     -.000239
    20.415000     -.000081    20.415000     -.000288
    20.460000     -.000074    20.460000     -.000318
    20.505000     -.000066    20.505000     -.000343
    20.565000     -.000054    20.565000     -.000367
    20.610000     -.000044    20.610000     -.000378
    20.655000     -.000034    20.655000     -.000382
    20.715000     -.000020    20.715000     -.000380
    20.760000     -.000009    20.760000     -.000371
    20.805000      .000001    20.805000     -.000357
    20.865000      .000015    20.865000     -.000330
    20.910000      .000025    20.910000     -.000304
    20.955000      .000034    20.955000     -.000274
    21.015000      .000045    21.015000     -.000229
    21.060000      .000052    21.060000     -.000192
    21.105000      .000058    21.105000     -.000153
    21.165000      .000065    21.165000     -.000098
    21.210000      .000068    21.210000     -.000057
    21.255000      .000071    21.255000     -.000015
    21.315000      .000073    21.315000      .000039
    21.360000      .000073    21.360000      .000078
    21.405000      .000071    21.405000      .000115
    21.465000      .000068    21.465000      .000160
    21.510000      .000065    21.510000      .000190
    21.555000      .000060    21.555000      .000217
    21.615000      .000053    21.615000      .000246
    21.660000      .000047    21.660000      .000263
    21.705000      .000040    21.705000      .000275
    21.765000      .000030    21.765000      .000285
    21.810000      .000022    21.810000      .000287
    21.855000      .000014    21.855000      .000284
    21.915000      .000004    21.915000      .000274
    21.960000     -.000004    21.960000      .000262
    22.005000     -.000011    22.005000      .000246
    22.065000     -.000021    22.065000      .000219
    22.110000     -.000027    22.110000      .000195
    22.155000     -.000033    22.155000      .000169
    22.215000     -.000040    22.215000      .000131
    22.260000     -.000044    22.260000      .000101
    22.305000     -.000048    22.305000      .000070
    22.365000     -.000051    22.365000      .000028
    22.410000     -.000053    22.410000     -.000003
    22.455000     -.000053    22.455000     -.000034
    22.515000     -.000053    22.515000     -.000073
    22.560000     -.000052    22.560000     -.000100
    22.605000     -.000050    22.605000     -.000124
    22.665000     -.000046    22.665000     -.000154
    22.710000     -.000042    22.710000     -.000172
    22.755000     -.000038    22.755000     -.000188
    22.815000     -.000032    22.815000     -.000203
    22.860000     -.000026    22.860000     -.000211
    22.905000     -.000021    22.905000     -.000215
    22.965000     -.000013    22.965000     -.000215
    23.010000     -.000008    23.010000     -.000211
    23.055000     -.000002    23.055000     -.000204
    23.115000      .000006    23.115000     -.000190
    23.160000      .000011    23.160000     -.000176
    23.205000      .000016    23.205000     -.000159
    23.265000      .000022    23.265000     -.000134
    23.310000      .000026    23.310000     -.000113
    23.355000      .000030    23.355000     -.000091
    23.415000      .000033    23.415000     -.000059
    23.460000      .000035    23.460000     -.000035
    23.505000      .000037    23.505000     -.000011
    23.565000      .000038    23.565000      .000021
    23.610000      .000038    23.610000      .000043
    23.655000      .000037    23.655000      .000065
    23.715000      .000036    23.715000      .000091
    23.760000      .000034    23.760000      .000109
    23.805000      .000031    23.805000      .000125
    23.865000      .000027    23.865000      .000142
    23.910000      .000024    23.910000      .000152
    23.955000      .000020    23.955000      .000159
